# New eGalICS format
# filter of Hershel PACS 160 micron
# download from  "Filter Profile Service" (http://svo2.cab.inta-csic.es/theory/fps)
# the number of effective wavelenght has beed reduced (1/3)
# After the "START" signal, the file is bild as follow:
# File name
# nwave: number of wavelenght
# center wavelenght [micron]
# and for l=1 to nwave, lambda [micron] | transmission [without unit]
START
PACS_160
78
166.0
 0.1120E+03    0.2510E-03
 0.1130E+03    0.5640E-03
 0.1140E+03    0.1292E-02
 0.1149E+03    0.1924E-02
 0.1159E+03    0.2603E-02
 0.1170E+03    0.3896E-02
 0.1180E+03    0.5911E-02
 0.1190E+03    0.9556E-02
 0.1201E+03    0.1491E-01
 0.1212E+03    0.2369E-01
 0.1223E+03    0.3667E-01
 0.1235E+03    0.5678E-01
 0.1246E+03    0.8722E-01
 0.1258E+03    0.1294E+00
 0.1270E+03    0.1854E+00
 0.1282E+03    0.2529E+00
 0.1294E+03    0.3243E+00
 0.1307E+03    0.3886E+00
 0.1320E+03    0.4376E+00
 0.1333E+03    0.4542E+00
 0.1347E+03    0.4535E+00
 0.1361E+03    0.4630E+00
 0.1375E+03    0.4889E+00
 0.1389E+03    0.5081E+00
 0.1404E+03    0.5141E+00
 0.1418E+03    0.5178E+00
 0.1434E+03    0.5200E+00
 0.1449E+03    0.5216E+00
 0.1465E+03    0.5283E+00
 0.1481E+03    0.5352E+00
 0.1498E+03    0.5405E+00
 0.1515E+03    0.5409E+00
 0.1533E+03    0.5393E+00
 0.1550E+03    0.5406E+00
 0.1569E+03    0.5363E+00
 0.1587E+03    0.5296E+00
 0.1606E+03    0.5169E+00
 0.1626E+03    0.5063E+00
 0.1646E+03    0.4983E+00
 0.1667E+03    0.4850E+00
 0.1688E+03    0.4707E+00
 0.1709E+03    0.4580E+00
 0.1732E+03    0.4523E+00
 0.1754E+03    0.4454E+00
 0.1778E+03    0.4412E+00
 0.1802E+03    0.4328E+00
 0.1826E+03    0.4367E+00
 0.1852E+03    0.4335E+00
 0.1878E+03    0.4347E+00
 0.1905E+03    0.4244E+00
 0.1932E+03    0.4102E+00
 0.1961E+03    0.3748E+00
 0.1990E+03    0.3424E+00
 0.2020E+03    0.2942E+00
 0.2051E+03    0.2415E+00
 0.2083E+03    0.1816E+00
 0.2116E+03    0.1352E+00
 0.2151E+03    0.9357E-01
 0.2186E+03    0.6334E-01
 0.2222E+03    0.4169E-01
 0.2260E+03    0.2837E-01
 0.2299E+03    0.1899E-01
 0.2339E+03    0.1248E-01
 0.2381E+03    0.8725E-02
 0.2424E+03    0.6213E-02
 0.2469E+03    0.4417E-02
 0.2516E+03    0.3116E-02
 0.2564E+03    0.2304E-02
 0.2614E+03    0.1681E-02
 0.2667E+03    0.1129E-02
 0.2721E+03    0.7210E-03
 0.2778E+03    0.4900E-03
 0.2837E+03    0.3580E-03
 0.2899E+03    0.2230E-03
 0.2963E+03    0.1310E-03
 0.3030E+03    0.1610E-03
 0.3101E+03    0.1310E-03
 0.3175E+03    0.1110E-03
