# New G.A.S. format
# filter of VIMOS_U
# download from  "Filter Profile Service" (http://svo2.cab.inta-csic.es/theory/fps)
# After the "START" signal, the file is bild as follow:
# Filter name
# nwave: number of wavelenght
# center wavelenght [micron]
# and for l=1 to nwave, lambda [micron] | transmission [without unit]
START
VIMOS_u
129
0.37446
0.33290   0.0115580
0.33343   0.0125410
0.33395   0.0133290
0.33448   0.0141100
0.33501   0.0160800
0.33554   0.0173300
0.33606   0.0185410
0.33659   0.0201130
0.33712   0.0215550
0.33765   0.0229850
0.33817   0.0251580
0.33870   0.0264760
0.33923   0.0278800
0.33975   0.0293240
0.34028   0.0309020
0.34081   0.0328800
0.34134   0.0349970
0.34186   0.0366110
0.34239   0.0386240
0.34292   0.0405960
0.34344   0.0425900
0.34397   0.0446420
0.34450   0.0471020
0.34503   0.0495620
0.34555   0.0512190
0.34608   0.0532170
0.34661   0.0552660
0.34713   0.0573280
0.34766   0.0593670
0.34819   0.0614520
0.34872   0.0634510
0.34924   0.0654140
0.34977   0.0673250
0.35030   0.0691630
0.35082   0.0710900
0.35135   0.0731000
0.35188   0.0751020
0.35241   0.0769780
0.35293   0.0790790
0.35346   0.0816000
0.35399   0.0840940
0.35452   0.0866040
0.35504   0.0891110
0.35557   0.0915770
0.35610   0.0940970
0.35662   0.0966200
0.35715   0.0991000
0.35768   0.1015930
0.35821   0.1039920
0.35873   0.1064400
0.35926   0.1088620
0.35979   0.1111800
0.36032   0.1135190
0.36084   0.1158670
0.36137   0.1180710
0.36190   0.1201940
0.36242   0.1223790
0.36295   0.1244400
0.36348   0.1263890
0.36401   0.1282400
0.36453   0.1301470
0.36506   0.1319130
0.36559   0.1335640
0.36611   0.1351610
0.36664   0.1367530
0.36717   0.1382110
0.36770   0.1396000
0.36822   0.1409480
0.36875   0.1422350
0.36928   0.1434920
0.36980   0.1446150
0.37033   0.1457830
0.37086   0.1469910
0.37139   0.1480710
0.37191   0.1491170
0.37244   0.1502490
0.37297   0.1514590
0.37350   0.1525790
0.37402   0.1536990
0.37455   0.1550120
0.37508   0.1563000
0.37560   0.1575890
0.37613   0.1589740
0.37666   0.1604370
0.37719   0.1619330
0.37771   0.1635300
0.37824   0.1651430
0.37877   0.1668030
0.37929   0.1685130
0.37982   0.1701330
0.38035   0.1718390
0.38088   0.1735170
0.38140   0.1751670
0.38193   0.1766280
0.38246   0.1780670
0.38298   0.1794280
0.38351   0.1804670
0.38404   0.1812270
0.38457   0.1818860
0.38509   0.1820470
0.38562   0.1817810
0.38615   0.1812230
0.38668   0.1800490
0.38720   0.1782870
0.38773   0.1759010
0.38826   0.1727510
0.38878   0.1688080
0.38931   0.1639340
0.38984   0.1581690
0.39037   0.1513150
0.39089   0.1438080
0.39142   0.1350190
0.39195   0.1242400
0.39247   0.1127200
0.39300   0.1006230
0.39353   0.0895810
0.39406   0.0804110
0.39458   0.0714980
0.39511   0.0626250
0.39564   0.0531380
0.39616   0.0431600
0.39669   0.0320290
0.39722   0.0217480
0.39775   0.0139170
0.39827   0.0080500
0.39880   0.0048960
0.39933   0.0031720
0.39986   0.0021160
0.40038   0.0014990
