# New G.A.S. format
# filter of Planck_F100
# download from  "Filter Profile Service" (http://svo2.cab.inta-csic.es/theory/fps)
# Wavelenght table as been reduced by a factor 4
# After the "START" signal, the file is bild as follow:
# Filter name
# nwave: number of wavelenght
# center wavelenght [micron]
# and for l=1 to nwave, lambda [micron] | transmission [without unit]
START
Planck_F100
101
2997.92458
934.57946   0.0000000
952.38095   0.0000000
970.87377   0.0000000
990.09897   0.0000001
1010.10105   0.0000007
1030.92786   0.0000013
1052.63158   0.0000016
1075.26880   0.0000025
1098.90105   0.0000029
1123.59555   0.0000026
1149.42531   0.0000046
1176.47059   0.0000049
1204.81925   0.0000046
1234.56784   0.0000080
1265.82277   0.0000050
1298.70133   0.0000067
1333.33333   0.0000060
1369.86298   0.0000080
1408.45072   0.0000056
1449.27534   0.0000098
1492.53736   0.0000314
1538.46154   0.0000444
1587.30154   0.0000589
1639.34429   0.0000522
1694.91523   0.0000434
1754.38602   0.0000475
1818.18182   0.0001575
1886.79238   0.0001476
1960.78435   0.0000702
2040.81629   0.0002348
2127.65966   0.0006409
2222.22222   0.0023845
2325.58129   0.0053317
2410.45831   0.0172443
2450.30059   0.0257324
2491.48211   0.1040381
2534.07170   0.2195265
2578.14251   0.4485759
2591.74284   0.4633787
2596.24249   0.4681660
2600.75764   0.4783993
2604.15444   0.4898139
2608.69717   0.5055049
2612.21480   0.5129226
2616.68532   0.5120143
2621.27191   0.5024638
2624.72254   0.4970290
2629.33738   0.5036303
2633.96847   0.5311482
2637.45263   0.5609574
2642.11238   0.5992079
2646.78879   0.6221545
2650.30681   0.6270532
2655.01230   0.6242665
2659.07067   0.6226330
2663.28690   0.6275210
2668.03863   0.6394702
2671.61340   0.6479152
2676.39492   0.6515166
2681.19341   0.6437942
2684.80372   0.6327787
2689.63244   0.6170597
2694.47856   0.6059210
2698.12475   0.6018522
2703.00155   0.5998219
2707.63817   0.5970383
2711.57864   0.5916911
2716.50441   0.5822507
2720.21033   0.5761340
2725.16736   0.5728256
2730.14268   0.5730361
2733.88592   0.5702175
2738.89315   0.5554963
2743.91858   0.5293071
2770.90083   0.5589510
2823.67990   0.6408380
2878.50863   0.7572917
2935.50880   0.6139432
2994.81201   0.4917071
3056.56071   0.6055248
3120.90936   0.6639078
3188.02569   0.8873127
3258.09219   0.6172938
3331.30774   1.0000000
3407.88953   0.5141337
3488.07517   0.3431712
3572.12517   0.0880184
3660.32579   0.0038611
3752.99227   0.0006166
3850.47259   0.0001489
3953.15185   0.0000454
4061.45738   0.0000162
4175.86463   0.0000065
4296.90419   0.0000028
4425.16999   0.0000013
4561.32906   0.0000007
4706.13316   0.0000004
4860.43261   0.0000002
5025.19303   0.0000001
5201.51560   0.0000001
5390.66162   0.0000000
