# New G.A.S. format
# filter of Planck_F857
# download from  "Filter Profile Service" (http://svo2.cab.inta-csic.es/theory/fps)
# Wavelenght table as been reduced by a factor 50
# After the "START" signal, the file is bild as follow:
# Filter name
# nwave: number of wavelenght
# center wavelenght [micron]
# and for l=1 to nwave, lambda [micron] | transmission [without unit]
START
Planck_F857
113
349.81617
213.21961   0.0000000
225.22522   0.0000000
238.66348   0.0000007
253.80710   0.0000042
271.00270   0.0004596
286.91900   0.0052832
289.20803   0.0227349
289.85651   0.0293585
290.49372   0.0344711
291.14459   0.0384607
291.79089   0.0343113
292.43667   0.0325991
293.09966   0.0390883
293.75122   0.0530143
294.42026   0.0703296
295.07771   0.0820772
295.75282   0.0975383
296.41624   0.1314646
297.09749   0.1786964
297.76696   0.2310445
298.45445   0.2908372
299.13006   0.3289512
299.82385   0.3562595
300.50568   0.3891371
301.19938   0.3938878
301.89399   0.4118554
302.58528   0.4556746
303.29522   0.5097939
304.13413   0.5594345
312.13765   0.7791023
320.57382   0.8504745
325.20680   0.9494737
326.02698   0.9473604
326.83336   0.9316323
327.65831   0.9251867
328.47629   0.9196509
329.29571   0.9161942
330.13582   0.9061924
330.96267   0.9794591
331.81218   0.9795396
332.64747   0.9617851
333.50568   0.9578266
334.34952   0.9256729
335.21655   0.8917288
336.06908   0.8836075
336.94504   0.9091176
337.80640   0.9309773
338.69147   0.9072203
339.56180   0.8969284
340.44865   0.9034922
341.33553   0.8957477
346.41446   0.8567630
356.83607   0.8139744
367.90418   0.8119674
371.88280   0.7111584
372.95573   0.6766242
374.01133   0.7021903
375.09659   0.6685551
376.16437   0.6141172
377.26218   0.6437063
378.34233   0.6922103
379.43797   0.7314612
380.54564   0.7384955
381.64470   0.7115961
382.77478   0.6644736
383.88678   0.6302006
385.03020   0.6568376
386.15536   0.6789029
387.31232   0.6700124
388.45088   0.6520182
389.62169   0.6836855
391.71833   0.6788498
405.09669   0.4599045
419.42117   0.2850549
433.06434   0.1172080
434.48827   0.1060991
435.95353   0.0981142
437.39655   0.0939750
438.88156   0.0849665
440.34407   0.0747010
441.84919   0.0629438
443.33158   0.0498886
444.85719   0.0496836
446.35986   0.0467174
447.90647   0.0433595
449.42984   0.0429088
450.99740   0.0410260
452.54234   0.0337471
454.10534   0.0310090
455.69822   0.0239118
472.18277   0.0100512
491.75916   0.0037331
513.02901   0.0019748
536.22205   0.0008458
561.61134   0.0005347
589.52442   0.0004804
620.35727   0.0002662
654.59335   0.0002448
692.82892   0.0001359
735.80837   0.0001330
784.47297   0.0000640
840.03053   0.0000444
904.05729   0.0000097
978.64944   0.0000256
1066.65744   0.0000398
1172.05845   0.0000583
1300.57358   0.0000280
1460.74275   0.0000253
1665.90328   0.0000084
1938.10975   0.0000035
2316.64662   0.0000017
2878.93955   0.0000010
3801.67671   0.0000000
