# New G.A.S. format
# filter of Planck_F143
# download from  "Filter Profile Service" (http://svo2.cab.inta-csic.es/theory/fps)
# Wavelenght table as been reduced by a factor 6
# After the "START" signal, the file is bild as follow:
# Filter name
# nwave: number of wavelenght
# center wavelenght [micron]
# and for l=1 to nwave, lambda [micron] | transmission [without unit]
START
Planck_F143
112
2096.45076
813.00812   0.0000000
833.33333   0.0000000
854.70087   0.0000002
877.19301   0.0000001
900.90087   0.0000000
925.92591   0.0000000
952.38095   0.0000000
980.39218   0.0000000
1010.10105   0.0000003
1041.66663   0.0000004
1075.26880   0.0000017
1111.11111   0.0000111
1149.42531   0.0000267
1190.47624   0.0000865
1234.56784   0.0003392
1282.05125   0.0001555
1299.81367   0.0000885
1301.51059   0.0003346
1303.21187   0.0002418
1304.91768   0.0000641
1306.62789   0.0002770
1308.05655   0.0003696
1309.77500   0.0001443
1311.49805   0.0001608
1313.22555   0.0004031
1314.95770   0.0002701
1316.40465   0.0001230
1318.14511   0.0003252
1319.89027   0.0004216
1321.63997   0.0001842
1323.39440   0.0002490
1324.85990   0.0004542
1326.62289   0.0003315
1328.39050   0.0001584
1330.16291   0.0003808
1331.93997   0.0004197
1333.42455   0.0001996
1335.21043   0.0002299
1337.00101   0.0004597
1338.79649   0.0002932
1340.59671   0.0001593
1342.28191   0.0003057
1343.90978   0.0004353
1345.72388   0.0001882
1347.54279   0.0002759
1349.36671   0.0004887
1351.19548   0.0002917
1352.72333   0.0001876
1354.56131   0.0004304
1356.40420   0.0004514
1358.25221   0.0002068
1360.10516   0.0003405
1361.65323   0.0005159
1363.51549   0.0003238
1365.38294   0.0002055
1367.25541   0.0004586
1369.13312   0.0004194
1398.60138   0.0002849
1459.85403   0.0004988
1526.71751   0.0007679
1600.00000   0.0016360
1680.67232   0.0040567
1723.96071   0.0242610
1754.56348   0.1008333
1786.27252   0.3763888
1819.14877   0.4452151
1853.25772   0.5184656
1888.67037   0.6199536
1925.46255   0.6089966
1963.71685   0.7165387
2003.52182   0.5568688
2044.97408   0.6516730
2088.17764   0.7605174
2133.24631   0.6572763
2180.30332   0.7169021
2229.48296   0.8555318
2280.93268   0.8551561
2334.81283   0.8501177
2391.30036   0.5956376
2450.58864   0.5552895
2512.89187   0.3737494
2578.44555   0.0087850
2595.11612   0.0052763
2601.06343   0.0036270
2607.55996   0.0021790
2613.25577   0.0025397
2620.12372   0.0025408
2625.87477   0.0012921
2632.80929   0.0008364
2638.61607   0.0015782
2645.61814   0.0012340
2651.48162   0.0002248
2658.55223   0.0005174
2664.47324   0.0011737
2671.36259   0.0004779
2683.45017   0.0003581
2689.63244   0.0009061
2695.69286   0.0002659
2710.34998   0.0005263
2717.73848   0.0005186
2732.91456   0.0001268
2740.14783   0.0006366
2758.33713   0.0000801
2837.52382   0.0000227
2921.39150   0.0000076
3010.36786   0.0000029
3104.93436   0.0000012
3205.63491   0.0000005
3313.08658   0.0000003
3427.99129   0.0000001
3551.15262   0.0000001
3683.49367   0.0000000
