# New G.A.S. format
# filter of Planck_F545
# download from  "Filter Profile Service" (http://svo2.cab.inta-csic.es/theory/fps)
# Wavelenght table as been reduced by a factor 22
# After the "START" signal, the file is bild as follow:
# Filter name
# nwave: number of wavelenght
# center wavelenght [micron]
# and for l=1 to nwave, lambda [micron] | transmission [without unit]
START
Planck_F545
108
550.07790
347.22223   0.0000000
366.97248   0.0000000
382.40918   0.0000002
399.20161   0.0000012
417.53652   0.0001500
437.63675   0.0089315
448.28784   0.0297394
455.86840   0.0827306
463.70979   0.2259428
471.82562   0.7309340
480.23059   0.8318289
488.94049   0.8770197
497.97212   0.9437709
507.34373   0.9110665
517.07481   0.9763131
520.02035   0.9971937
520.92600   0.9899758
521.83480   0.9993199
522.74679   0.9716458
523.66191   0.9656593
524.58030   0.9554973
525.50191   0.9674141
526.42677   0.9371416
527.35489   0.9342380
528.28628   0.9528455
529.22097   0.8631771
530.15898   0.8727823
531.10032   0.8818963
532.04500   0.8593522
532.99306   0.8765919
533.94449   0.9170005
534.89933   0.9270050
535.85759   0.9325159
536.81929   0.9369013
537.78440   0.9373771
538.75303   0.9509966
539.72517   0.8691668
540.70081   0.8443509
541.67999   0.8334719
542.66272   0.7657920
543.64903   0.6607939
544.63892   0.6864575
545.63243   0.6752751
546.62957   0.6595337
553.25073   0.6971721
564.84269   0.8080803
576.93074   0.8139135
589.54749   0.6976616
602.72847   0.7175999
616.51225   0.6310612
630.94127   0.5941117
646.06188   0.3495309
650.67587   0.2206815
652.09439   0.2546725
653.51912   0.1848077
654.95008   0.1848465
656.38733   0.2423333
657.83085   0.2216809
659.28078   0.1827418
660.73712   0.2082315
662.19990   0.2221300
663.66918   0.1335411
665.14499   0.0934140
666.62738   0.0996207
668.11639   0.0831752
669.61202   0.0512840
671.11441   0.0585309
672.62356   0.0815647
674.13950   0.0514702
675.66230   0.0623080
677.19199   0.1011577
678.72863   0.0806663
680.27221   0.0547803
681.82287   0.0763020
683.38061   0.0624194
694.47868   0.0562216
712.84231   0.0137493
732.20347   0.0087699
752.64572   0.0041519
774.26213   0.0037714
797.15699   0.0015318
821.44711   0.0013930
847.26403   0.0007463
874.75632   0.0004244
904.09268   0.0001952
935.46500   0.0001674
969.09285   0.0001601
1005.22844   0.0001801
1044.16337   0.0001690
1086.23591   0.0001296
1131.84126   0.0002019
1181.44376   0.0000438
1235.59330   0.0000563
1294.94498   0.0000719
1360.28628   0.0001083
1432.57198   0.0000765
1512.97147   0.0001794
1602.93188   0.0000593
1704.26671   0.0000200
1819.27850   0.0000079
1950.93689   0.0000035
2103.13753   0.0000018
2281.09543   0.0000009
2491.95284   0.0000005
2745.76300   0.0000003
3057.13817   0.0000002
3448.16746   0.0000001
3953.89866   0.0000000
