# New G.A.S. format
# filter of Megaprime_g
# download from  "Filter Profile Service" (http://svo2.cab.inta-csic.es/theory/fps)
# After the "START" signal, the file is bild as follow:
# Filter name
# nwave: number of wavelenght
# center wavelenght [micron]
# and for l=1 to nwave, lambda [micron] | transmission [without unit]
START
Megaprime_g
094
0.48727
0.39600   0.0041200
0.39800   0.0057200
0.40000   0.0085000
0.40200   0.0141600
0.40400   0.0255900
0.40600   0.0482200
0.40800   0.0926500
0.41000   0.1690400
0.41200   0.2828100
0.41400   0.4288800
0.41600   0.5827200
0.41800   0.7162000
0.42000   0.8084400
0.42200   0.8546300
0.42400   0.8708600
0.42600   0.8749400
0.42800   0.8803900
0.43000   0.8876800
0.43200   0.8917500
0.43400   0.8908100
0.43600   0.8862500
0.43800   0.8834400
0.44000   0.8855700
0.44200   0.8923000
0.44400   0.8997800
0.44600   0.9046300
0.44800   0.9054600
0.45000   0.9039800
0.45200   0.9032100
0.45400   0.9064300
0.45600   0.9140500
0.45800   0.9238100
0.46000   0.9317500
0.46200   0.9346900
0.46400   0.9320800
0.46600   0.9249000
0.46800   0.9163800
0.47000   0.9098400
0.47200   0.9070400
0.47400   0.9089800
0.47600   0.9149600
0.47800   0.9225800
0.48000   0.9293800
0.48200   0.9335800
0.48400   0.9342700
0.48600   0.9323600
0.48800   0.9303000
0.49000   0.9283900
0.49200   0.9256300
0.49400   0.9192400
0.49600   0.9063100
0.49800   0.8884100
0.50000   0.8700600
0.50200   0.8562300
0.50400   0.8493500
0.50600   0.8466800
0.50800   0.8439800
0.51000   0.8379500
0.51200   0.8282000
0.51400   0.8172000
0.51600   0.8078500
0.51800   0.8032500
0.52000   0.8052100
0.52200   0.8143600
0.52400   0.8276100
0.52600   0.8392300
0.52800   0.8423000
0.53000   0.8363300
0.53200   0.8259400
0.53400   0.8173800
0.53600   0.8172000
0.53800   0.8229100
0.54000   0.8264800
0.54200   0.8189500
0.54400   0.7948000
0.54600   0.7563800
0.54800   0.7126900
0.55000   0.6724400
0.55200   0.6403200
0.55400   0.6120100
0.55600   0.5783500
0.55800   0.5318600
0.56000   0.4690900
0.56200   0.3929100
0.56400   0.3102100
0.56600   0.2298100
0.56800   0.1598200
0.57000   0.1046800
0.57200   0.0652900
0.57400   0.0395500
0.57600   0.0233800
0.57800   0.0135200
0.58000   0.0078300
0.58200   0.0046500
