# New G.A.S. format
# filter of Hershel PACS 70 micron
# download from  "Filter Profile Service" (http://svo2.cab.inta-csic.es/theory/fps)
# the number of effective wavelenght has beed reduced (1/4)
# After the "START" signal, the file is bild as follow:
# File name
# nwave: number of wavelenght
# center wavelenght [micron]
# and for l=1 to nwave, lambda [micron] | transmission [without unit]
START
PACS_70
101
71.3
 0.5420E+02    0.1740E-03
 0.5450E+02    0.3490E-03
 0.5479E+02    0.6850E-03
 0.5510E+02    0.1267E-02
 0.5540E+02    0.2599E-02
 0.5571E+02    0.5665E-02
 0.5602E+02    0.1077E-01
 0.5634E+02    0.1724E-01
 0.5666E+02    0.2629E-01
 0.5698E+02    0.3823E-01
 0.5731E+02    0.5188E-01
 0.5764E+02    0.6736E-01
 0.5797E+02    0.8589E-01
 0.5831E+02    0.1061E+00
 0.5865E+02    0.1294E+00
 0.5900E+02    0.1554E+00
 0.5935E+02    0.1812E+00
 0.5970E+02    0.2101E+00
 0.6006E+02    0.2400E+00
 0.6042E+02    0.2693E+00
 0.6079E+02    0.2936E+00
 0.6116E+02    0.3135E+00
 0.6154E+02    0.3297E+00
 0.6192E+02    0.3521E+00
 0.6231E+02    0.3781E+00
 0.6270E+02    0.3993E+00
 0.6309E+02    0.4161E+00
 0.6349E+02    0.4381E+00
 0.6390E+02    0.4633E+00
 0.6431E+02    0.4888E+00
 0.6472E+02    0.5074E+00
 0.6515E+02    0.5148E+00
 0.6557E+02    0.5142E+00
 0.6601E+02    0.5115E+00
 0.6645E+02    0.5121E+00
 0.6689E+02    0.5144E+00
 0.6734E+02    0.5073E+00
 0.6780E+02    0.4955E+00
 0.6826E+02    0.4756E+00
 0.6873E+02    0.4529E+00
 0.6920E+02    0.4462E+00
 0.6969E+02    0.4501E+00
 0.7018E+02    0.4496E+00
 0.7067E+02    0.4493E+00
 0.7117E+02    0.4563E+00
 0.7168E+02    0.4656E+00
 0.7220E+02    0.4690E+00
 0.7273E+02    0.4690E+00
 0.7326E+02    0.4759E+00
 0.7380E+02    0.4845E+00
 0.7435E+02    0.4923E+00
 0.7491E+02    0.4989E+00
 0.7547E+02    0.5014E+00
 0.7605E+02    0.4984E+00
 0.7663E+02    0.4873E+00
 0.7722E+02    0.4744E+00
 0.7782E+02    0.4435E+00
 0.7843E+02    0.4102E+00
 0.7905E+02    0.3963E+00
 0.7968E+02    0.3881E+00
 0.8032E+02    0.3681E+00
 0.8097E+02    0.3398E+00
 0.8163E+02    0.3052E+00
 0.8230E+02    0.2633E+00
 0.8299E+02    0.2195E+00
 0.8368E+02    0.1789E+00
 0.8439E+02    0.1429E+00
 0.8511E+02    0.1176E+00
 0.8584E+02    0.9915E-01
 0.8658E+02    0.8135E-01
 0.8734E+02    0.6392E-01
 0.8811E+02    0.4891E-01
 0.8889E+02    0.3675E-01
 0.8969E+02    0.2738E-01
 0.9050E+02    0.2185E-01
 0.9132E+02    0.1879E-01
 0.9217E+02    0.1655E-01
 0.9302E+02    0.1427E-01
 0.9390E+02    0.1179E-01
 0.9479E+02    0.9599E-02
 0.9569E+02    0.7815E-02
 0.9662E+02    0.6456E-02
 0.9756E+02    0.5311E-02
 0.9852E+02    0.4586E-02
 0.9950E+02    0.3776E-02
 0.1005E+03    0.2944E-02
 0.1015E+03    0.2178E-02
 0.1026E+03    0.1639E-02
 0.1036E+03    0.1345E-02
 0.1047E+03    0.1121E-02
 0.1058E+03    0.8580E-03
 0.1070E+03    0.6620E-03
 0.1081E+03    0.5600E-03
 0.1093E+03    0.4340E-03
 0.1105E+03    0.3370E-03
 0.1117E+03    0.3020E-03
 0.1130E+03    0.2510E-03
 0.1143E+03    0.2080E-03
 0.1156E+03    0.1530E-03
 0.1170E+03    0.1290E-03
 0.1183E+03    0.1110E-03
