# New G.A.S. format
# filter of VISTA CAM j band
# download from  "Filter Profile Service" (http://svo2.cab.inta-csic.es/theory/fps)
# the number of effective wavelenght has beed reduced (1/3)
# After the "START" signal, the file is bild as follow:
# File name
# nwave: number of wavelenght
# center wavelenght [micron]
# and for l=1 to nwave, lambda [micron] | transmission [without unit]
START
VISTA_j
97
1.25
 0.1118E+01    0.1158E-02
 0.1121E+01    0.2030E-03
 0.1124E+01    0.1154E-02
 0.1127E+01    0.1584E-02
 0.1130E+01    0.1910E-02
 0.1133E+01    0.3267E-02
 0.1136E+01    0.3842E-02
 0.1139E+01    0.6286E-02
 0.1142E+01    0.7408E-02
 0.1145E+01    0.1257E-01
 0.1148E+01    0.1839E-01
 0.1151E+01    0.2997E-01
 0.1154E+01    0.4891E-01
 0.1157E+01    0.8306E-01
 0.1160E+01    0.1451E+00
 0.1163E+01    0.2633E+00
 0.1166E+01    0.4346E+00
 0.1169E+01    0.6191E+00
 0.1172E+01    0.7397E+00
 0.1175E+01    0.7628E+00
 0.1178E+01    0.7493E+00
 0.1181E+01    0.7315E+00
 0.1184E+01    0.7218E+00
 0.1187E+01    0.7238E+00
 0.1190E+01    0.7355E+00
 0.1193E+01    0.7524E+00
 0.1196E+01    0.7721E+00
 0.1199E+01    0.7903E+00
 0.1202E+01    0.8075E+00
 0.1205E+01    0.8188E+00
 0.1208E+01    0.8282E+00
 0.1211E+01    0.8338E+00
 0.1214E+01    0.8376E+00
 0.1217E+01    0.8395E+00
 0.1220E+01    0.8425E+00
 0.1223E+01    0.8453E+00
 0.1226E+01    0.8483E+00
 0.1229E+01    0.8535E+00
 0.1232E+01    0.8591E+00
 0.1235E+01    0.8644E+00
 0.1238E+01    0.8695E+00
 0.1241E+01    0.8720E+00
 0.1244E+01    0.8721E+00
 0.1247E+01    0.8691E+00
 0.1250E+01    0.8636E+00
 0.1253E+01    0.8527E+00
 0.1256E+01    0.8376E+00
 0.1259E+01    0.8215E+00
 0.1262E+01    0.8108E+00
 0.1265E+01    0.7971E+00
 0.1268E+01    0.7809E+00
 0.1271E+01    0.7735E+00
 0.1274E+01    0.7707E+00
 0.1277E+01    0.7643E+00
 0.1280E+01    0.7615E+00
 0.1283E+01    0.7732E+00
 0.1286E+01    0.7804E+00
 0.1289E+01    0.7851E+00
 0.1292E+01    0.8059E+00
 0.1295E+01    0.8143E+00
 0.1298E+01    0.8262E+00
 0.1301E+01    0.8452E+00
 0.1304E+01    0.8484E+00
 0.1307E+01    0.8698E+00
 0.1310E+01    0.8662E+00
 0.1313E+01    0.8811E+00
 0.1316E+01    0.8750E+00
 0.1319E+01    0.8721E+00
 0.1322E+01    0.8575E+00
 0.1325E+01    0.8219E+00
 0.1328E+01    0.7780E+00
 0.1331E+01    0.7007E+00
 0.1334E+01    0.6079E+00
 0.1337E+01    0.5005E+00
 0.1340E+01    0.3908E+00
 0.1343E+01    0.2978E+00
 0.1346E+01    0.2140E+00
 0.1349E+01    0.1545E+00
 0.1352E+01    0.1095E+00
 0.1355E+01    0.7683E-01
 0.1358E+01    0.5436E-01
 0.1361E+01    0.3841E-01
 0.1364E+01    0.2793E-01
 0.1367E+01    0.1992E-01
 0.1370E+01    0.1520E-01
 0.1373E+01    0.1112E-01
 0.1376E+01    0.8807E-02
 0.1379E+01    0.6782E-02
 0.1382E+01    0.3905E-02
 0.1385E+01    0.4279E-02
 0.1388E+01    0.2308E-02
 0.1391E+01    0.2079E-02
 0.1394E+01    0.1774E-02
 0.1397E+01    0.1059E-02
 0.1400E+01    0.1218E-02
 0.1403E+01    0.1374E-02
 0.1406E+01    0.7750E-03
