# New eGalICS format
# filter of VISTA CAM j band
# download from  "Filter Profile Service" (http://svo2.cab.inta-csic.es/theory/fps)
# the number of effective wavelenght has beed reduced (1/4)
# After the "START" signal, the file is bild as follow:
# File name
# nwave: number of wavelenght
# center wavelenght [micron]
# and for l=1 to nwave, lambda [micron] | transmission [without unit]
START
VISTA_ks
132
2.15
 0.1902E+01    0.2027E-02
 0.1906E+01    0.1200E-02
 0.1910E+01    0.1741E-02
 0.1914E+01    0.1262E-02
 0.1918E+01    0.3369E-02
 0.1922E+01    0.4707E-02
 0.1926E+01    0.5738E-02
 0.1930E+01    0.9318E-02
 0.1934E+01    0.1022E-01
 0.1938E+01    0.1321E-01
 0.1942E+01    0.1638E-01
 0.1946E+01    0.2221E-01
 0.1950E+01    0.2899E-01
 0.1954E+01    0.3686E-01
 0.1958E+01    0.4741E-01
 0.1962E+01    0.6578E-01
 0.1966E+01    0.8311E-01
 0.1970E+01    0.1079E+00
 0.1974E+01    0.1474E+00
 0.1978E+01    0.1966E+00
 0.1982E+01    0.2563E+00
 0.1986E+01    0.3308E+00
 0.1990E+01    0.4157E+00
 0.1994E+01    0.5227E+00
 0.1998E+01    0.6044E+00
 0.2002E+01    0.6955E+00
 0.2006E+01    0.7584E+00
 0.2010E+01    0.7976E+00
 0.2014E+01    0.8354E+00
 0.2018E+01    0.8367E+00
 0.2022E+01    0.8572E+00
 0.2026E+01    0.8478E+00
 0.2030E+01    0.8650E+00
 0.2034E+01    0.8498E+00
 0.2038E+01    0.8661E+00
 0.2042E+01    0.8512E+00
 0.2046E+01    0.8719E+00
 0.2050E+01    0.8601E+00
 0.2054E+01    0.8800E+00
 0.2058E+01    0.8718E+00
 0.2062E+01    0.8895E+00
 0.2066E+01    0.8829E+00
 0.2070E+01    0.8979E+00
 0.2074E+01    0.8959E+00
 0.2078E+01    0.9054E+00
 0.2082E+01    0.9066E+00
 0.2086E+01    0.9089E+00
 0.2090E+01    0.9164E+00
 0.2094E+01    0.9099E+00
 0.2098E+01    0.9252E+00
 0.2102E+01    0.9161E+00
 0.2106E+01    0.9237E+00
 0.2110E+01    0.9268E+00
 0.2114E+01    0.9194E+00
 0.2118E+01    0.9288E+00
 0.2122E+01    0.9186E+00
 0.2126E+01    0.9289E+00
 0.2130E+01    0.9221E+00
 0.2134E+01    0.9214E+00
 0.2138E+01    0.9300E+00
 0.2142E+01    0.9187E+00
 0.2146E+01    0.9211E+00
 0.2150E+01    0.9286E+00
 0.2154E+01    0.9176E+00
 0.2158E+01    0.9262E+00
 0.2162E+01    0.9229E+00
 0.2166E+01    0.9161E+00
 0.2170E+01    0.9266E+00
 0.2174E+01    0.9261E+00
 0.2178E+01    0.9207E+00
 0.2182E+01    0.9280E+00
 0.2186E+01    0.9309E+00
 0.2190E+01    0.9254E+00
 0.2194E+01    0.9322E+00
 0.2198E+01    0.9379E+00
 0.2202E+01    0.9338E+00
 0.2206E+01    0.9333E+00
 0.2210E+01    0.9391E+00
 0.2214E+01    0.9349E+00
 0.2218E+01    0.9294E+00
 0.2222E+01    0.9313E+00
 0.2226E+01    0.9334E+00
 0.2230E+01    0.9292E+00
 0.2234E+01    0.9215E+00
 0.2238E+01    0.9249E+00
 0.2242E+01    0.9252E+00
 0.2246E+01    0.9194E+00
 0.2250E+01    0.9179E+00
 0.2254E+01    0.9227E+00
 0.2258E+01    0.9293E+00
 0.2262E+01    0.9296E+00
 0.2266E+01    0.9308E+00
 0.2270E+01    0.9335E+00
 0.2274E+01    0.9280E+00
 0.2278E+01    0.9112E+00
 0.2282E+01    0.8764E+00
 0.2286E+01    0.8205E+00
 0.2290E+01    0.7467E+00
 0.2294E+01    0.6530E+00
 0.2298E+01    0.5529E+00
 0.2302E+01    0.4525E+00
 0.2306E+01    0.3614E+00
 0.2310E+01    0.2830E+00
 0.2314E+01    0.2166E+00
 0.2318E+01    0.1650E+00
 0.2322E+01    0.1272E+00
 0.2326E+01    0.9851E-01
 0.2330E+01    0.7665E-01
 0.2334E+01    0.5883E-01
 0.2338E+01    0.4464E-01
 0.2342E+01    0.3553E-01
 0.2346E+01    0.2933E-01
 0.2350E+01    0.2406E-01
 0.2354E+01    0.1888E-01
 0.2358E+01    0.1477E-01
 0.2362E+01    0.1205E-01
 0.2366E+01    0.9807E-02
 0.2370E+01    0.9238E-02
 0.2374E+01    0.7366E-02
 0.2378E+01    0.4537E-02
 0.2382E+01    0.4195E-02
 0.2386E+01    0.3774E-02
 0.2390E+01    0.4271E-02
 0.2394E+01    0.1803E-02
 0.2398E+01    0.1499E-02
 0.2402E+01    0.3109E-02
 0.2406E+01    0.2618E-02
 0.2410E+01    0.1958E-02
 0.2414E+01    0.5720E-03
 0.2418E+01    0.4300E-03
 0.2422E+01    0.5630E-03
 0.2426E+01    0.8400E-03
