# Calzetti Filter 03 
# lam_c =  1356.50 
# wavelenght (A) | Transmission
1342.00   1.00
1342.59   1.00
1343.18   1.00
1343.78   1.00
1344.37   1.00
1344.96   1.00
1345.55   1.00
1346.14   1.00
1346.73   1.00
1347.33   1.00
1347.92   1.00
1348.51   1.00
1349.10   1.00
1349.69   1.00
1350.29   1.00
1350.88   1.00
1351.47   1.00
1352.06   1.00
1352.65   1.00
1353.24   1.00
1353.84   1.00
1354.43   1.00
1355.02   1.00
1355.61   1.00
1356.20   1.00
1356.80   1.00
1357.39   1.00
1357.98   1.00
1358.57   1.00
1359.16   1.00
1359.76   1.00
1360.35   1.00
1360.94   1.00
1361.53   1.00
1362.12   1.00
1362.71   1.00
1363.31   1.00
1363.90   1.00
1364.49   1.00
1365.08   1.00
1365.67   1.00
1366.27   1.00
1366.86   1.00
1367.45   1.00
1368.04   1.00
1368.63   1.00
1369.22   1.00
1369.82   1.00
1370.41   1.00
1371.00   1.00
